# ACE/gr parameter file
#
#
@page 5
@page inout 5
@link page off
@default linestyle 1
@default linewidth 1
@default color 1
@default char size 1.000000
@default font 4
@default font source 0
@default symbol size 1.000000
@with string
@    string on
@    string loctype view
@    string 0.0645161290323, 0.265
@    string linewidth 1
@    string color 1
@    string rot 0
@    string font 0
@    string just 0
@    string char size 1.800000
@string def "n=1"
@with string
@    string on
@    string loctype view
@    string 0.0617110799439, 0.486666666667
@    string linewidth 1
@    string color 1
@    string rot 0
@    string font 0
@    string just 0
@    string char size 1.800000
@string def "n=2"
@with string
@    string on
@    string loctype view
@    string 0.0631136044881, 0.706666666667
@    string linewidth 1
@    string color 1
@    string rot 0
@    string font 0
@    string just 0
@    string char size 1.800000
@string def "n=3"
@with string
@    string on
@    string loctype view
@    string 0.792426367461, 0.256666666667
@    string linewidth 1
@    string color 1
@    string rot 0
@    string font 0
@    string just 0
@    string char size 1.800000
@string def "sin(\8p\0\2z/l\sw\N\0)"
@with string
@    string on
@    string loctype view
@    string 0.796633941094, 0.478333333333
@    string linewidth 1
@    string color 1
@    string rot 0
@    string font 0
@    string just 0
@    string char size 1.800000
@string def "sin(2\8p\2z/l\sw\N\0)"
@with string
@    string on
@    string loctype view
@    string 0.798036465638, 0.705
@    string linewidth 1
@    string color 1
@    string rot 0
@    string font 0
@    string just 0
@    string char size 1.800000
@string def "sin(3\8p\2z/l\sw\N\0)"
@with g0
@g0 on
@g0 label off
@g0 hidden false
@g0 type xy
@g0 autoscale type AUTO
@g0 fixedpoint off
@g0 fixedpoint type 0
@g0 fixedpoint xy 0.000000, 0.000000
@g0 fixedpoint format general general
@g0 fixedpoint prec 6, 6
@    world xmin 0
@    world xmax 100
@    world ymin -5000
@    world ymax 80000
@    view xmin 0.150000
@    view xmax 0.780000
@    view ymin 0.220000
@    view ymax 0.850000
@    title ""
@    title font 4
@    title size 1.500000
@    title color 1
@    title linewidth 1
@    subtitle ""
@    subtitle font 4
@    subtitle size 1.000000
@    subtitle color 1
@    subtitle linewidth 1
@    s0 type xy
@    s0 symbol 0
@    s0 symbol size 1.000000
@    s0 symbol fill 1
@    s0 symbol color 1
@    s0 symbol linewidth 1
@    s0 symbol linestyle 1
@    s0 symbol center false
@    s0 symbol char 0
@    s0 skip 0
@    s0 linestyle 1
@    s0 linewidth 2
@    s0 color 1
@    s0 fill 0
@    s0 fill with color
@    s0 fill color 1
@    s0 fill pattern 0
@    s0 errorbar type BOTH
@    s0 errorbar length 1.000000
@    s0 errorbar linewidth 1
@    s0 errorbar linestyle 1
@    s0 errorbar riser on
@    s0 errorbar riser linewidth 1
@    s0 errorbar riser linestyle 1
@    s0 xyz 0.000000, 0.000000
@    s0 comment "wf_e1.r"
@    s1 type xy
@    s1 symbol 0
@    s1 symbol size 1.000000
@    s1 symbol fill 1
@    s1 symbol color 1
@    s1 symbol linewidth 1
@    s1 symbol linestyle 1
@    s1 symbol center false
@    s1 symbol char 0
@    s1 skip 0
@    s1 linestyle 1
@    s1 linewidth 2
@    s1 color 1
@    s1 fill 0
@    s1 fill with color
@    s1 fill color 1
@    s1 fill pattern 0
@    s1 errorbar type BOTH
@    s1 errorbar length 1.000000
@    s1 errorbar linewidth 1
@    s1 errorbar linestyle 1
@    s1 errorbar riser on
@    s1 errorbar riser linewidth 1
@    s1 errorbar riser linestyle 1
@    s1 xyz 0.000000, 0.000000
@    s1 comment "wf_e2.r"
@    s2 type xy
@    s2 symbol 0
@    s2 symbol size 1.000000
@    s2 symbol fill 1
@    s2 symbol color 1
@    s2 symbol linewidth 1
@    s2 symbol linestyle 1
@    s2 symbol center false
@    s2 symbol char 0
@    s2 skip 0
@    s2 linestyle 1
@    s2 linewidth 2
@    s2 color 1
@    s2 fill 0
@    s2 fill with color
@    s2 fill color 1
@    s2 fill pattern 0
@    s2 errorbar type BOTH
@    s2 errorbar length 1.000000
@    s2 errorbar linewidth 1
@    s2 errorbar linestyle 1
@    s2 errorbar riser on
@    s2 errorbar riser linewidth 1
@    s2 errorbar riser linestyle 1
@    s2 xyz 0.000000, 0.000000
@    s2 comment "wf_e3.r"
@    xaxis  tick on
@    xaxis  tick major 20
@    xaxis  tick minor 10
@    xaxis  tick offsetx 0.000000
@    xaxis  tick offsety 0.000000
@    xaxis  label "\2z\0-axis (\cE\C)"
@    xaxis  label layout para
@    xaxis  label place auto
@    xaxis  label char size 2.000000
@    xaxis  label font 0
@    xaxis  label color 1
@    xaxis  label linewidth 1
@    xaxis  ticklabel on
@    xaxis  ticklabel type auto
@    xaxis  ticklabel prec 0
@    xaxis  ticklabel format decimal
@    xaxis  ticklabel append ""
@    xaxis  ticklabel prepend ""
@    xaxis  ticklabel layout horizontal
@    xaxis  ticklabel skip 0
@    xaxis  ticklabel stagger 0
@    xaxis  ticklabel op bottom
@    xaxis  ticklabel sign normal
@    xaxis  ticklabel start type spec
@    xaxis  ticklabel start 0.000000
@    xaxis  ticklabel stop type auto
@    xaxis  ticklabel stop 0.000000
@    xaxis  ticklabel char size 2.000000
@    xaxis  ticklabel font 0
@    xaxis  ticklabel color 1
@    xaxis  ticklabel linewidth 1
@    xaxis  tick major on
@    xaxis  tick minor on
@    xaxis  tick default 6
@    xaxis  tick in
@    xaxis  tick major color 1
@    xaxis  tick major linewidth 1
@    xaxis  tick major linestyle 1
@    xaxis  tick minor color 1
@    xaxis  tick minor linewidth 1
@    xaxis  tick minor linestyle 1
@    xaxis  tick log off
@    xaxis  tick size 1.000000
@    xaxis  tick minor size 0.500000
@    xaxis  bar off
@    xaxis  bar color 1
@    xaxis  bar linestyle 1
@    xaxis  bar linewidth 1
@    xaxis  tick major grid off
@    xaxis  tick minor grid off
@    xaxis  tick op both
@    xaxis  tick type auto
@    xaxis  tick spec 0
@    yaxis  tick on
@    yaxis  tick major 10000
@    yaxis  tick minor 5000
@    yaxis  tick offsetx 0.000000
@    yaxis  tick offsety 0.000000
@    yaxis  label "Energy (meV)"
@    yaxis  label layout para
@    yaxis  label place auto
@    yaxis  label char size 2.000000
@    yaxis  label font 0
@    yaxis  label color 1
@    yaxis  label linewidth 1
@    yaxis  ticklabel off
@    yaxis  ticklabel type auto
@    yaxis  ticklabel prec 1
@    yaxis  ticklabel format decimal
@    yaxis  ticklabel append ""
@    yaxis  ticklabel prepend ""
@    yaxis  ticklabel layout horizontal
@    yaxis  ticklabel skip 0
@    yaxis  ticklabel stagger 0
@    yaxis  ticklabel op left
@    yaxis  ticklabel sign normal
@    yaxis  ticklabel start type auto
@    yaxis  ticklabel start 0.000000
@    yaxis  ticklabel stop type auto
@    yaxis  ticklabel stop 0.000000
@    yaxis  ticklabel char size 2.000000
@    yaxis  ticklabel font 0
@    yaxis  ticklabel color 1
@    yaxis  ticklabel linewidth 1
@    yaxis  tick major off
@    yaxis  tick minor on
@    yaxis  tick default 6
@    yaxis  tick in
@    yaxis  tick major color 1
@    yaxis  tick major linewidth 1
@    yaxis  tick major linestyle 1
@    yaxis  tick minor color 1
@    yaxis  tick minor linewidth 1
@    yaxis  tick minor linestyle 1
@    yaxis  tick log off
@    yaxis  tick size 1.000000
@    yaxis  tick minor size 0.500000
@    yaxis  bar off
@    yaxis  bar color 1
@    yaxis  bar linestyle 1
@    yaxis  bar linewidth 1
@    yaxis  tick major grid off
@    yaxis  tick minor grid off
@    yaxis  tick op both
@    yaxis  tick type auto
@    yaxis  tick spec 0
@    zeroxaxis  tick on
@    zeroxaxis  tick major 20
@    zeroxaxis  tick minor 10
@    zeroxaxis  tick offsetx 0.000000
@    zeroxaxis  tick offsety 0.000000
@    zeroxaxis  label ""
@    zeroxaxis  label layout para
@    zeroxaxis  label place auto
@    zeroxaxis  label char size 1.000000
@    zeroxaxis  label font 4
@    zeroxaxis  label color 1
@    zeroxaxis  label linewidth 1
@    zeroxaxis  ticklabel off
@    zeroxaxis  ticklabel type auto
@    zeroxaxis  ticklabel prec 1
@    zeroxaxis  ticklabel format exponential
@    zeroxaxis  ticklabel append ""
@    zeroxaxis  ticklabel prepend ""
@    zeroxaxis  ticklabel layout horizontal
@    zeroxaxis  ticklabel skip 0
@    zeroxaxis  ticklabel stagger 0
@    zeroxaxis  ticklabel op bottom
@    zeroxaxis  ticklabel sign normal
@    zeroxaxis  ticklabel start type auto
@    zeroxaxis  ticklabel start 0.000000
@    zeroxaxis  ticklabel stop type auto
@    zeroxaxis  ticklabel stop 0.000000
@    zeroxaxis  ticklabel char size 1.000000
@    zeroxaxis  ticklabel font 4
@    zeroxaxis  ticklabel color 1
@    zeroxaxis  ticklabel linewidth 1
@    zeroxaxis  tick major off
@    zeroxaxis  tick minor on
@    zeroxaxis  tick default 6
@    zeroxaxis  tick in
@    zeroxaxis  tick major color 1
@    zeroxaxis  tick major linewidth 1
@    zeroxaxis  tick major linestyle 1
@    zeroxaxis  tick minor color 1
@    zeroxaxis  tick minor linewidth 1
@    zeroxaxis  tick minor linestyle 1
@    zeroxaxis  tick log off
@    zeroxaxis  tick size 1.000000
@    zeroxaxis  tick minor size 0.500000
@    zeroxaxis  bar off
@    zeroxaxis  bar color 1
@    zeroxaxis  bar linestyle 1
@    zeroxaxis  bar linewidth 1
@    zeroxaxis  tick major grid off
@    zeroxaxis  tick minor grid off
@    zeroxaxis  tick op both
@    zeroxaxis  tick type auto
@    zeroxaxis  tick spec 0
@    zeroyaxis  tick on
@    zeroyaxis  tick major 10000
@    zeroyaxis  tick minor 5000
@    zeroyaxis  tick offsetx 0.000000
@    zeroyaxis  tick offsety 0.000000
@    zeroyaxis  label ""
@    zeroyaxis  label layout para
@    zeroyaxis  label place auto
@    zeroyaxis  label char size 1.000000
@    zeroyaxis  label font 4
@    zeroyaxis  label color 1
@    zeroyaxis  label linewidth 1
@    zeroyaxis  ticklabel off
@    zeroyaxis  ticklabel type auto
@    zeroyaxis  ticklabel prec 1
@    zeroyaxis  ticklabel format decimal
@    zeroyaxis  ticklabel append ""
@    zeroyaxis  ticklabel prepend ""
@    zeroyaxis  ticklabel layout horizontal
@    zeroyaxis  ticklabel skip 0
@    zeroyaxis  ticklabel stagger 0
@    zeroyaxis  ticklabel op left
@    zeroyaxis  ticklabel sign normal
@    zeroyaxis  ticklabel start type auto
@    zeroyaxis  ticklabel start 0.000000
@    zeroyaxis  ticklabel stop type auto
@    zeroyaxis  ticklabel stop 0.000000
@    zeroyaxis  ticklabel char size 1.000000
@    zeroyaxis  ticklabel font 4
@    zeroyaxis  ticklabel color 1
@    zeroyaxis  ticklabel linewidth 1
@    zeroyaxis  tick major off
@    zeroyaxis  tick minor on
@    zeroyaxis  tick default 6
@    zeroyaxis  tick in
@    zeroyaxis  tick major color 1
@    zeroyaxis  tick major linewidth 1
@    zeroyaxis  tick major linestyle 1
@    zeroyaxis  tick minor color 1
@    zeroyaxis  tick minor linewidth 1
@    zeroyaxis  tick minor linestyle 1
@    zeroyaxis  tick log off
@    zeroyaxis  tick size 1.000000
@    zeroyaxis  tick minor size 0.500000
@    zeroyaxis  bar off
@    zeroyaxis  bar color 1
@    zeroyaxis  bar linestyle 1
@    zeroyaxis  bar linewidth 1
@    zeroyaxis  tick major grid off
@    zeroyaxis  tick minor grid off
@    zeroyaxis  tick op both
@    zeroyaxis  tick type auto
@    zeroyaxis  tick spec 0
@    legend off
@    legend loctype view
@    legend layout 0
@    legend vgap 2
@    legend hgap 1
@    legend length 4
@    legend box off
@    legend box fill off
@    legend box fill with color
@    legend box fill color 0
@    legend box fill pattern 1
@    legend box color 1
@    legend box linewidth 1
@    legend box linestyle 1
@    legend x1 0.8
@    legend y1 0.8
@    legend font 4
@    legend char size 1.000000
@    legend linestyle 1
@    legend linewidth 1
@    legend color 1
@    frame on
@    frame type 0
@    frame linestyle 1
@    frame linewidth 1
@    frame color 1
@    frame fill off
@    frame background color 0
@WITH G0
@G0 ON
@TYPE xy
               0                0
          0.1001          44.4732
          0.2002           88.946
          0.3003          133.418
          0.4004          177.889
        0.500501          222.357
        0.600601          266.824
        0.700701          311.288
        0.800801          355.749
        0.900901          400.206
           1.001           444.66
          1.1011          489.109
          1.2012          533.553
          1.3013          577.992
          1.4014          622.425
          1.5015          666.852
          1.6016          711.273
          1.7017          755.686
          1.8018          800.092
          1.9019           844.49
           2.002           888.88
          2.1021          933.261
          2.2022          977.632
          2.3023          1021.99
          2.4024          1066.35
          2.5025          1110.69
          2.6026          1155.02
          2.7027          1199.34
          2.8028          1243.64
          2.9029          1287.94
           3.003          1332.22
          3.1031          1376.49
          3.2032          1420.74
          3.3033          1464.99
          3.4034          1509.21
          3.5035          1553.42
          3.6036          1597.62
          3.7037           1641.8
          3.8038          1685.97
          3.9039          1730.11
           4.004          1774.24
          4.1041          1818.36
          4.2042          1862.45
          4.3043          1906.53
          4.4044          1950.59
          4.5045          1994.63
          4.6046          2038.64
          4.7047          2082.64
          4.8048          2126.62
          4.9049          2170.58
         5.00501          2214.51
         5.10511          2258.43
         5.20521          2302.32
         5.30531          2346.19
         5.40541          2390.03
         5.50551          2433.85
         5.60561          2477.65
         5.70571          2521.42
         5.80581          2565.17
         5.90591           2608.9
         6.00601          2652.59
         6.10611          2696.26
         6.20621          2739.91
         6.30631          2783.53
         6.40641          2827.11
         6.50651          2870.68
         6.60661          2914.21
         6.70671          2957.71
         6.80681          3001.19
         6.90691          3044.63
         7.00701          3088.05
         7.10711          3131.43
         7.20721          3174.79
         7.30731          3218.11
         7.40741           3261.4
         7.50751          3304.66
         7.60761          3347.88
         7.70771          3391.08
         7.80781          3434.24
         7.90791          3477.36
         8.00801          3520.45
         8.10811          3563.51
         8.20821          3606.53
         8.30831          3649.51
         8.40841          3692.46
         8.50851          3735.37
         8.60861          3778.25
         8.70871          3821.09
         8.80881          3863.89
         8.90891          3906.65
         9.00901          3949.37
         9.10911          3992.06
         9.20921           4034.7
         9.30931          4077.31
         9.40941          4119.87
         9.50951           4162.4
         9.60961          4204.88
         9.70971          4247.32
         9.80981          4289.72
         9.90991          4332.08
           10.01          4374.39
         10.1101          4416.66
         10.2102          4458.89
         10.3103          4501.07
         10.4104          4543.21
         10.5105           4585.3
         10.6106          4627.35
         10.7107          4669.35
         10.8108          4711.31
         10.9109          4753.22
          11.011          4795.08
         11.1111           4836.9
         11.2112          4878.66
         11.3113          4920.38
         11.4114          4962.05
         11.5115          5003.67
         11.6116          5045.24
         11.7117          5086.77
         11.8118          5128.24
         11.9119          5169.66
          12.012          5211.03
         12.1121          5252.35
         12.2122          5293.61
         12.3123          5334.83
         12.4124          5375.99
         12.5125           5417.1
         12.6126          5458.15
         12.7127          5499.15
         12.8128           5540.1
         12.9129          5580.99
          13.013          5621.82
         13.1131          5662.61
         13.2132          5703.33
         13.3133             5744
         13.4134          5784.61
         13.5135          5825.16
         13.6136          5865.66
         13.7137           5906.1
         13.8138          5946.48
         13.9139           5986.8
          14.014          6027.06
         14.1141          6067.26
         14.2142          6107.41
         14.3143          6147.49
         14.4144          6187.51
         14.5145          6227.47
         14.6146          6267.37
         14.7147           6307.2
         14.8148          6346.98
         14.9149          6386.69
          15.015          6426.34
         15.1151          6465.92
         15.2152          6505.44
         15.3153           6544.9
         15.4154          6584.29
         15.5155          6623.62
         15.6156          6662.88
         15.7157          6702.07
         15.8158           6741.2
         15.9159          6780.27
          16.016          6819.26
         16.1161          6858.19
         16.2162          6897.05
         16.3163          6935.84
         16.4164          6974.56
         16.5165          7013.22
         16.6166           7051.8
         16.7167          7090.32
         16.8168          7128.76
         16.9169          7167.14
          17.017          7205.44
         17.1171          7243.67
         17.2172          7281.83
         17.3173          7319.92
         17.4174          7357.94
         17.5175          7395.88
         17.6176          7433.75
         17.7177          7471.55
         17.8178          7509.27
         17.9179          7546.92
          18.018          7584.49
         18.1181          7621.99
         18.2182          7659.42
         18.3183          7696.76
         18.4184          7734.04
         18.5185          7771.23
         18.6186          7808.35
         18.7187          7845.39
         18.8188          7882.35
         18.9189          7919.24
          19.019          7956.05
         19.1191          7992.78
         19.2192          8029.42
         19.3193             8066
         19.4194          8102.49
         19.5195           8138.9
         19.6196          8175.23
         19.7197          8211.47
         19.8198          8247.64
         19.9199          8283.73
           20.02          8319.73
         20.1201          8355.66
         20.2202          8391.49
         20.3203          8427.25
         20.4204          8462.92
         20.5205          8498.51
         20.6206          8534.02
         20.7207          8569.44
         20.8208          8604.78
         20.9209          8640.03
          21.021          8675.19
         21.1211          8710.27
         21.2212          8745.27
         21.3213          8780.17
         21.4214          8814.99
         21.5215          8849.73
         21.6216          8884.37
         21.7217          8918.93
         21.8218           8953.4
         21.9219          8987.78
          22.022          9022.07
         22.1221          9056.28
         22.2222          9090.39
         22.3223          9124.41
         22.4224          9158.35
         22.5225          9192.19
         22.6226          9225.94
         22.7227           9259.6
         22.8228          9293.17
         22.9229          9326.65
          23.023          9360.03
         23.1231          9393.32
         23.2232          9426.52
         23.3233          9459.63
         23.4234          9492.64
         23.5235          9525.56
         23.6236          9558.39
         23.7237          9591.12
         23.8238          9623.75
         23.9239          9656.29
